Wavelength (nm)	1, Oxo-OEC ZF
320.00	0.14847
321.00	0.13802
322.00	0.13100
323.00	0.12398
324.00	0.11981
325.00	0.11567
326.00	0.11153
327.00	0.10837
328.00	0.10608
329.00	0.10379
330.00	0.10150
331.00	0.10045
332.00	0.099505
333.00	0.098560
334.00	0.097614
335.00	0.098181
336.00	0.099035
337.00	0.099890
338.00	0.10079
339.00	0.10221
340.00	0.10364
341.00	0.10506
342.00	0.10649
343.00	0.10914
344.00	0.11195
345.00	0.11476
346.00	0.11837
347.00	0.12246
348.00	0.12655
349.00	0.13183
350.00	0.13839
351.00	0.14495
352.00	0.15261
353.00	0.16152
354.00	0.17043
355.00	0.17933
356.00	0.18778
357.00	0.19612
358.00	0.20446
359.00	0.21280
360.00	0.22114
361.00	0.22919
362.00	0.23703
363.00	0.24487
364.00	0.25271
365.00	0.26055
366.00	0.26839
367.00	0.27691
368.00	0.28634
369.00	0.29577
370.00	0.30520
371.00	0.31462
372.00	0.32615
373.00	0.33881
374.00	0.35147
375.00	0.36412
376.00	0.38051
377.00	0.39710
378.00	0.41369
379.00	0.43027
380.00	0.45040
381.00	0.47298
382.00	0.49557
383.00	0.51815
384.00	0.54023
385.00	0.55775
386.00	0.57527
387.00	0.59279
388.00	0.61030
389.00	0.62782
390.00	0.64735
391.00	0.66691
392.00	0.68646
393.00	0.71420
394.00	0.74399
395.00	0.77377
396.00	0.81077
397.00	0.84776
398.00	0.88539
399.00	0.92476
400.00	0.96158
401.00	0.98470
402.00	0.99625
403.00	1.0000
404.00	0.99593
405.00	0.98071
406.00	0.94889
407.00	0.90307
408.00	0.85290
409.00	0.79623
410.00	0.73649
411.00	0.66961
412.00	0.60272
413.00	0.53622
414.00	0.47003
415.00	0.41147
416.00	0.36224
417.00	0.31301
418.00	0.27061
419.00	0.22992
420.00	0.20341
421.00	0.17831
422.00	0.15800
423.00	0.13945
424.00	0.12170
425.00	0.11041
426.00	0.099120
427.00	0.088071
428.00	0.080817
429.00	0.073562
430.00	0.066308
431.00	0.059906
432.00	0.053732
433.00	0.047557
434.00	0.042862
435.00	0.039036
436.00	0.035210
437.00	0.031442
438.00	0.029562
439.00	0.027682
440.00	0.025803
441.00	0.023923
442.00	0.022204
443.00	0.021027
444.00	0.019850
445.00	0.018672
446.00	0.017495
447.00	0.016376
448.00	0.015463
449.00	0.014550
450.00	0.013638
451.00	0.012725
452.00	0.011812
453.00	0.011368
454.00	0.011063
455.00	0.010758
456.00	0.010453
457.00	0.010148
458.00	0.010189
459.00	0.010345
460.00	0.010501
461.00	0.010658
462.00	0.010814
463.00	0.011411
464.00	0.012086
465.00	0.012760
466.00	0.013435
467.00	0.014110
468.00	0.014850
469.00	0.015886
470.00	0.016921
471.00	0.017957
472.00	0.018992
473.00	0.020028
474.00	0.021064
475.00	0.022036
476.00	0.022953
477.00	0.023870
478.00	0.024787
479.00	0.025704
480.00	0.026621
481.00	0.027541
482.00	0.028476
483.00	0.029411
484.00	0.030346
485.00	0.031281
486.00	0.032216
487.00	0.032840
488.00	0.033198
489.00	0.033556
490.00	0.033915
491.00	0.034273
492.00	0.034607
493.00	0.034846
494.00	0.035086
495.00	0.035325
496.00	0.035564
497.00	0.036121
498.00	0.037155
499.00	0.038190
500.00	0.039224
501.00	0.041067
502.00	0.043258
503.00	0.045455
504.00	0.047732
505.00	0.049993
506.00	0.052227
507.00	0.054461
508.00	0.055465
509.00	0.056218
510.00	0.055725
511.00	0.054921
512.00	0.051809
513.00	0.048442
514.00	0.044951
515.00	0.041275
516.00	0.037668
517.00	0.034619
518.00	0.031570
519.00	0.028139
520.00	0.024454
521.00	0.021250
522.00	0.018712
523.00	0.016422
524.00	0.014421
525.00	0.013358
526.00	0.012365
527.00	0.012172
528.00	0.012689
529.00	0.013350
530.00	0.014904
531.00	0.016761
532.00	0.020096
533.00	0.023430
534.00	0.029228
535.00	0.034939
536.00	0.040020
537.00	0.045100
538.00	0.050093
539.00	0.055056
540.00	0.060276
541.00	0.065052
542.00	0.068983
543.00	0.071397
544.00	0.072353
545.00	0.073124
546.00	0.072390
547.00	0.071657
548.00	0.069536
549.00	0.066027
550.00	0.062184
551.00	0.057083
552.00	0.051981
553.00	0.047308
554.00	0.042735
555.00	0.038195
556.00	0.033731
557.00	0.029267
558.00	0.026035
559.00	0.022941
560.00	0.020029
561.00	0.017954
562.00	0.015879
563.00	0.013906
564.00	0.012275
565.00	0.010644
566.00	0.0091708
567.00	0.0084139
568.00	0.0076569
569.00	0.0073471
570.00	0.0078675
571.00	0.0083880
572.00	0.0089085
573.00	0.010513
574.00	0.012151
575.00	0.013790
576.00	0.015851
577.00	0.018093
578.00	0.020335
579.00	0.023630
580.00	0.026957
581.00	0.029012
582.00	0.030925
583.00	0.032356
584.00	0.033306
585.00	0.034256
586.00	0.034526
587.00	0.033965
588.00	0.033404
589.00	0.031732
590.00	0.029990
591.00	0.028247
592.00	0.026371
593.00	0.024478
594.00	0.022597
595.00	0.020902
596.00	0.019206
597.00	0.017511
598.00	0.016034
599.00	0.014581
600.00	0.013128
601.00	0.011953
602.00	0.010875
603.00	0.0097972
604.00	0.0098160
605.00	0.0099566
606.00	0.010264
607.00	0.011331
608.00	0.012398
609.00	0.012958
610.00	0.013267
611.00	0.013576
612.00	0.013886
613.00	0.013982
614.00	0.014070
615.00	0.014158
616.00	0.014246
617.00	0.014343
618.00	0.014446
619.00	0.014550
620.00	0.014653
621.00	0.015401
622.00	0.016220
623.00	0.017039
624.00	0.018530
625.00	0.020416
626.00	0.022302
627.00	0.026603
628.00	0.031545
629.00	0.038524
630.00	0.048690
631.00	0.059719
632.00	0.072584
633.00	0.085647
634.00	0.10508
635.00	0.12474
636.00	0.14652
637.00	0.16764
638.00	0.18596
639.00	0.20009
640.00	0.20822
641.00	0.20810
642.00	0.20316
643.00	0.18968
644.00	0.16664
645.00	0.14234
646.00	0.11559
647.00	0.088780
648.00	0.068274
649.00	0.051548
650.00	0.037915
651.00	0.027425
652.00	0.019119
653.00	0.014535
654.00	0.010507
655.00	0.0085668
656.00	0.0066270
657.00	0.0046872
658.00	0.0036237
659.00	0.0030971
660.00	0.0025706
661.00	0.0020441
662.00	0.0015937
663.00	0.0013599
664.00	0.0011261
665.00	0.00089232
666.00	0.00065854
667.00	0.00047662
668.00	0.00039102
669.00	0.00030542
670.00	0.00021983
671.00	0.00013423
672.00	0.00012396
673.00	0.00012396
674.00	0.00012396
675.00	0.00012396
676.00	0.00012396
677.00	0.00012396
678.00	0.00012396
679.00	0.00012395
680.00	0.00012394
681.00	0.00012393
682.00	0.00012392
683.00	0.00012391
684.00	0.00012390
685.00	0.00012389
686.00	0.00012389
687.00	0.00012389
688.00	0.00012389
689.00	0.00012389
690.00	0.00012389
691.00	0.00012389
692.00	0.00012389
693.00	0.00012389
694.00	0.00012389
695.00	0.00012389
696.00	0.00012389
697.00	0.00012389
698.00	0.00012389
699.00	0.00012389
700.00	0.00012389
