Wavelength (nm)	"125, M 1985_939, EZZ-5"
200.00	
201.00	
202.00	
203.00	
204.00	
205.00	
206.00	
207.00	
208.00	
209.00	
210.00	
211.00	
212.00	
213.00	
214.00	
215.00	
216.00	
217.00	
218.00	
219.00	
220.00	
221.00	
222.00	
223.00	
224.00	
225.00	
226.00	
227.00	
228.00	
229.00	
230.00	
231.00	
232.00	
233.00	
234.00	
235.00	
236.00	
237.00	
238.00	
239.00	
240.00	
241.00	
242.00	
243.00	
244.00	
245.00	
246.00	
247.00	
248.00	
249.00	
250.00	0.41570
251.00	0.41928
252.00	0.42285
253.00	0.42643
254.00	0.43000
255.00	0.43359
256.00	0.43735
257.00	0.44112
258.00	0.44488
259.00	0.44865
260.00	0.45242
261.00	0.45743
262.00	0.46294
263.00	0.46844
264.00	0.47395
265.00	0.47945
266.00	0.48495
267.00	0.49264
268.00	0.50050
269.00	0.50835
270.00	0.51620
271.00	0.52406
272.00	0.53392
273.00	0.54423
274.00	0.55454
275.00	0.56497
276.00	0.57855
277.00	0.59212
278.00	0.60569
279.00	0.61954
280.00	0.63997
281.00	0.66040
282.00	0.68084
283.00	0.69356
284.00	0.70561
285.00	0.71766
286.00	0.73016
287.00	0.74298
288.00	0.75580
289.00	0.75976
290.00	0.76294
291.00	0.76612
292.00	0.76789
293.00	0.76864
294.00	0.76757
295.00	0.76650
296.00	0.76543
297.00	0.76169
298.00	0.75676
299.00	0.75182
300.00	0.74196
301.00	0.72853
302.00	0.71510
303.00	0.70092
304.00	0.68440
305.00	0.66787
306.00	0.65135
307.00	0.63561
308.00	0.62234
309.00	0.60908
310.00	0.59582
311.00	0.58256
312.00	0.56930
313.00	0.56053
314.00	0.55227
315.00	0.54401
316.00	0.53575
317.00	0.53039
318.00	0.52535
319.00	0.52032
320.00	0.51528
321.00	0.51240
322.00	0.51052
323.00	0.50865
324.00	0.50678
325.00	0.50844
326.00	0.51050
327.00	0.51256
328.00	0.51462
329.00	0.51979
330.00	0.52534
331.00	0.53090
332.00	0.53645
333.00	0.54200
334.00	0.55498
335.00	0.56797
336.00	0.58096
337.00	0.59394
338.00	0.60693
339.00	0.61991
340.00	0.63533
341.00	0.65074
342.00	0.66616
343.00	0.68158
344.00	0.69748
345.00	0.71776
346.00	0.73805
347.00	0.75833
348.00	0.78389
349.00	0.81376
350.00	0.84362
351.00	0.87341
352.00	0.90320
353.00	0.91871
354.00	0.93423
355.00	0.94974
356.00	0.96077
357.00	0.96731
358.00	0.97384
359.00	0.97985
360.00	0.98514
361.00	0.99044
362.00	0.99464
363.00	0.99643
364.00	0.99821
365.00	1.0000
366.00	0.99874
367.00	0.99748
368.00	0.99622
369.00	0.99496
370.00	0.99235
371.00	0.98675
372.00	0.98114
373.00	0.97554
374.00	0.96838
375.00	0.95776
376.00	0.94715
377.00	0.93653
378.00	0.92592
379.00	0.91530
380.00	0.90187
381.00	0.88750
382.00	0.87314
383.00	0.85877
384.00	0.84440
385.00	0.82890
386.00	0.81176
387.00	0.79463
388.00	0.77750
389.00	0.76037
390.00	0.74324
391.00	0.72610
392.00	0.70760
393.00	0.68782
394.00	0.66805
395.00	0.64827
396.00	0.62849
397.00	0.60872
398.00	0.58561
399.00	0.56128
400.00	0.53694
401.00	0.51260
402.00	0.49255
403.00	0.47662
404.00	0.46068
405.00	0.44475
406.00	0.42881
407.00	0.41288
408.00	0.40006
409.00	0.39024
410.00	0.38042
411.00	0.37060
412.00	0.36078
413.00	0.35096
414.00	0.34211
415.00	0.33422
416.00	0.32633
417.00	0.31844
418.00	0.31055
419.00	0.30266
420.00	0.29478
421.00	0.28689
422.00	0.27960
423.00	0.27393
424.00	0.26826
425.00	0.26259
426.00	0.25693
427.00	0.25126
428.00	0.24559
429.00	0.23992
430.00	0.23425
431.00	0.22858
432.00	0.22292
433.00	0.21725
434.00	0.21158
435.00	0.20609
436.00	0.20164
437.00	0.19718
438.00	0.19273
439.00	0.18827
440.00	0.18382
441.00	0.17937
442.00	0.17491
443.00	0.17046
444.00	0.16600
445.00	0.16155
446.00	0.15709
447.00	0.15264
448.00	0.14819
449.00	0.14418
450.00	0.14095
451.00	0.13771
452.00	0.13448
453.00	0.13124
454.00	0.12800
455.00	0.12477
456.00	0.12153
457.00	0.11830
458.00	0.11546
459.00	0.11382
460.00	0.11217
461.00	0.11053
462.00	0.10889
463.00	0.10725
464.00	0.10561
465.00	0.10396
466.00	0.10232
467.00	0.10068
468.00	0.10020
469.00	0.099838
470.00	0.099476
471.00	0.099114
472.00	0.098752
473.00	0.098390
474.00	0.098028
475.00	0.097666
476.00	0.097304
477.00	0.097023
478.00	0.097342
479.00	0.097661
480.00	0.097981
481.00	0.098300
482.00	0.098619
483.00	0.098938
484.00	0.099257
485.00	0.099576
486.00	0.099895
487.00	0.10021
488.00	0.10054
489.00	0.10119
490.00	0.10184
491.00	0.10249
492.00	0.10313
493.00	0.10378
494.00	0.10443
495.00	0.10508
496.00	0.10573
497.00	0.10638
498.00	0.10703
499.00	0.10776
500.00	0.10908
501.00	0.11041
502.00	0.11174
503.00	0.11306
504.00	0.11439
505.00	0.11572
506.00	0.11705
507.00	0.11837
508.00	0.11970
509.00	0.12103
510.00	0.12253
511.00	0.12427
512.00	0.12600
513.00	0.12774
514.00	0.12947
515.00	0.13121
516.00	0.13294
517.00	0.13468
518.00	0.13641
519.00	0.13815
520.00	0.13988
521.00	0.14161
522.00	0.14389
523.00	0.14625
524.00	0.14861
525.00	0.15097
526.00	0.15333
527.00	0.15569
528.00	0.15805
529.00	0.16040
530.00	0.16276
531.00	0.16512
532.00	0.16748
533.00	0.16984
534.00	0.17193
535.00	0.17397
536.00	0.17601
537.00	0.17805
538.00	0.18010
539.00	0.18214
540.00	0.18418
541.00	0.18622
542.00	0.18827
543.00	0.19031
544.00	0.19235
545.00	0.19489
546.00	0.19858
547.00	0.20226
548.00	0.20595
549.00	0.20964
550.00	0.21333
551.00	0.21702
552.00	0.22071
553.00	0.22449
554.00	0.22851
555.00	0.23252
556.00	0.23653
557.00	0.24054
558.00	0.24455
559.00	0.24857
560.00	0.25258
561.00	0.25659
562.00	0.26088
563.00	0.26643
564.00	0.27198
565.00	0.27754
566.00	0.28309
567.00	0.28851
568.00	0.29360
569.00	0.29870
570.00	0.30380
571.00	0.30889
572.00	0.31399
573.00	0.31967
574.00	0.32593
575.00	0.33220
576.00	0.33846
577.00	0.34472
578.00	0.35098
579.00	0.35704
580.00	0.36258
581.00	0.36813
582.00	0.37367
583.00	0.37921
584.00	0.38475
585.00	0.39030
586.00	0.39584
587.00	0.40138
588.00	0.40692
589.00	0.41240
590.00	0.41771
591.00	0.42302
592.00	0.42832
593.00	0.43363
594.00	0.43893
595.00	0.44424
596.00	0.44955
597.00	0.45486
598.00	0.46017
599.00	0.46549
600.00	0.47080
601.00	0.47611
602.00	0.48143
603.00	0.48599
604.00	0.49050
605.00	0.49501
606.00	0.49952
607.00	0.50295
608.00	0.50523
609.00	0.50751
610.00	0.50978
611.00	0.51206
612.00	0.51405
613.00	0.51598
614.00	0.51791
615.00	0.51985
616.00	0.52178
617.00	0.52519
618.00	0.52873
619.00	0.53227
620.00	0.53581
621.00	0.53998
622.00	0.54605
623.00	0.55212
624.00	0.55793
625.00	0.56218
626.00	0.56642
627.00	0.57067
628.00	0.57491
629.00	0.57827
630.00	0.58122
631.00	0.58417
632.00	0.58712
633.00	0.58869
634.00	0.58966
635.00	0.59062
636.00	0.59158
637.00	0.59043
638.00	0.58927
639.00	0.58812
640.00	0.58697
641.00	0.58468
642.00	0.58227
643.00	0.57985
644.00	0.57744
645.00	0.57503
646.00	0.57306
647.00	0.57110
648.00	0.56913
649.00	0.56716
650.00	0.56520
651.00	0.56323
652.00	0.56140
653.00	0.55956
654.00	0.55772
655.00	0.55589
656.00	0.55405
657.00	0.55188
658.00	0.54852
659.00	0.54515
660.00	0.54179
661.00	0.53843
662.00	0.53507
663.00	0.53170
664.00	0.52800
665.00	0.52401
666.00	0.52003
667.00	0.51605
668.00	0.51206
669.00	0.50808
670.00	0.50379
671.00	0.49889
672.00	0.49399
673.00	0.48909
674.00	0.48419
675.00	0.47929
676.00	0.47340
677.00	0.46671
678.00	0.46003
679.00	0.45334
680.00	0.44665
681.00	0.43966
682.00	0.43227
683.00	0.42489
684.00	0.41750
685.00	0.41011
686.00	0.40272
687.00	0.39532
688.00	0.38789
689.00	0.38045
690.00	0.37302
691.00	0.36559
692.00	0.35815
693.00	0.35072
694.00	0.34328
695.00	0.33620
696.00	0.32960
697.00	0.32300
698.00	0.31641
699.00	0.30981
700.00	0.30321
701.00	0.29661
702.00	0.29001
703.00	0.28357
704.00	0.27780
705.00	0.27204
706.00	0.26627
707.00	0.26050
708.00	0.25473
709.00	0.24896
710.00	0.24319
711.00	0.23742
712.00	0.23165
713.00	0.22588
714.00	0.22004
715.00	0.21420
716.00	0.20835
717.00	0.20251
718.00	0.19667
719.00	0.19082
720.00	0.18498
721.00	0.17914
722.00	0.17329
723.00	0.16745
724.00	0.16161
725.00	0.15677
726.00	0.15212
727.00	0.14746
728.00	0.14281
729.00	0.13816
730.00	0.13350
731.00	0.12885
732.00	0.12419
733.00	0.11954
734.00	0.11488
735.00	0.11023
736.00	0.10557
737.00	0.10105
738.00	0.097167
739.00	0.093283
740.00	0.089400
741.00	0.085517
742.00	0.081634
743.00	0.077751
744.00	0.073867
745.00	0.069984
746.00	0.066148
747.00	0.063215
748.00	0.060281
749.00	0.057347
750.00	0.054414
751.00	0.051480
752.00	0.048547
753.00	0.045613
754.00	0.042679
755.00	0.040215
756.00	0.038064
757.00	0.035912
758.00	0.033761
759.00	0.031610
760.00	0.029458
761.00	0.027307
762.00	0.025155
763.00	0.023013
764.00	0.020886
765.00	0.018760
766.00	0.016633
767.00	0.014506
768.00	0.012380
769.00	0.011129
770.00	0.010069
771.00	0.0090102
772.00	0.0079511
773.00	0.0068920
774.00	0.0060150
775.00	0.0056567
776.00	0.0052984
777.00	0.0049401
778.00	0.0045818
779.00	0.0042235
780.00	0.0038021
781.00	0.0033537
782.00	0.0029052
783.00	0.0024568
784.00	0.0020083
785.00	0.0015599
786.00	0.0015599
787.00	0.0015599
788.00	0.0015599
789.00	0.0015599
790.00	0.0015599
791.00	0.0015599
792.00	0.0015599
793.00	0.0015599
794.00	0.0015599
795.00	0.0015599
796.00	0.0015599
797.00	0.0015599
798.00	0.0015599
799.00	0.0015599
800.00	0.0015599
801.00	
802.00	
803.00	
804.00	
805.00	
806.00	
807.00	
808.00	
809.00	
810.00	
811.00	
812.00	
813.00	
814.00	
815.00	
816.00	
817.00	
818.00	
819.00	
820.00	
821.00	
822.00	
823.00	
824.00	
825.00	
826.00	
827.00	
828.00	
829.00	
830.00	
831.00	
832.00	
833.00	
834.00	
835.00	
836.00	
837.00	
838.00	
839.00	
840.00	
841.00	
842.00	
843.00	
844.00	
845.00	
846.00	
847.00	
848.00	
849.00	
850.00	
851.00	
852.00	
853.00	
854.00	
855.00	
856.00	
857.00	
858.00	
859.00	
860.00	
861.00	
862.00	
863.00	
864.00	
865.00	
866.00	
867.00	
868.00	
869.00	
870.00	
871.00	
872.00	
873.00	
874.00	
875.00	
876.00	
877.00	
878.00	
879.00	
880.00	
881.00	
882.00	
883.00	
884.00	
885.00	
886.00	
887.00	
888.00	
889.00	
890.00	
891.00	
892.00	
893.00	
894.00	
895.00	
896.00	
897.00	
898.00	
899.00	
900.00	
901.00	
902.00	
903.00	
904.00	
905.00	
906.00	
907.00	
908.00	
909.00	
910.00	
911.00	
912.00	
913.00	
914.00	
915.00	
916.00	
917.00	
918.00	
919.00	
920.00	
921.00	
922.00	
923.00	
924.00	
925.00	
926.00	
927.00	
928.00	
929.00	
930.00	
931.00	
932.00	
933.00	
934.00	
935.00	
936.00	
937.00	
938.00	
939.00	
940.00	
941.00	
942.00	
943.00	
944.00	
945.00	
946.00	
947.00	
948.00	
949.00	
950.00	
951.00	
952.00	
953.00	
954.00	
955.00	
956.00	
957.00	
958.00	
959.00	
960.00	
961.00	
962.00	
963.00	
964.00	
965.00	
966.00	
967.00	
968.00	
969.00	
970.00	
971.00	
972.00	
973.00	
974.00	
975.00	
976.00	
977.00	
978.00	
979.00	
980.00	
981.00	
982.00	
983.00	
984.00	
985.00	
986.00	
987.00	
988.00	
989.00	
990.00	
991.00	
992.00	
993.00	
994.00	
995.00	
996.00	
997.00	
998.00	
999.00	
1000.0	
1001.0	
1002.0	
1003.0	
1004.0	
1005.0	
1006.0	
1007.0	
1008.0	
1009.0	
1010.0	
1011.0	
1012.0	
1013.0	
1014.0	
1015.0	
1016.0	
1017.0	
1018.0	
1019.0	
1020.0	
1021.0	
1022.0	
1023.0	
1024.0	
1025.0	
1026.0	
1027.0	
1028.0	
1029.0	
1030.0	
1031.0	
1032.0	
1033.0	
1034.0	
1035.0	
1036.0	
1037.0	
1038.0	
1039.0	
1040.0	
1041.0	
1042.0	
1043.0	
1044.0	
1045.0	
1046.0	
1047.0	
1048.0	
1049.0	
1050.0	
1051.0	
1052.0	
1053.0	
1054.0	
1055.0	
1056.0	
1057.0	
1058.0	
1059.0	
1060.0	
1061.0	
1062.0	
1063.0	
1064.0	
1065.0	
1066.0	
1067.0	
1068.0	
1069.0	
1070.0	
1071.0	
1072.0	
1073.0	
1074.0	
1075.0	
1076.0	
1077.0	
1078.0	
1079.0	
1080.0	
1081.0	
1082.0	
1083.0	
1084.0	
1085.0	
1086.0	
1087.0	
1088.0	
1089.0	
1090.0	
1091.0	
1092.0	
1093.0	
1094.0	
1095.0	
1096.0	
1097.0	
1098.0	
1099.0	
1100.0	
1101.0	
1102.0	
1103.0	
1104.0	
1105.0	
1106.0	
1107.0	
1108.0	
1109.0	
1110.0	
1111.0	
1112.0	
1113.0	
1114.0	
1115.0	
1116.0	
1117.0	
1118.0	
1119.0	
1120.0	
1121.0	
1122.0	
1123.0	
1124.0	
1125.0	
1126.0	
1127.0	
1128.0	
1129.0	
1130.0	
1131.0	
1132.0	
1133.0	
1134.0	
1135.0	
1136.0	
1137.0	
1138.0	
1139.0	
1140.0	
1141.0	
1142.0	
1143.0	
1144.0	
1145.0	
1146.0	
1147.0	
1148.0	
1149.0	
1150.0	
1151.0	
1152.0	
1153.0	
1154.0	
1155.0	
1156.0	
1157.0	
1158.0	
1159.0	
1160.0	
1161.0	
1162.0	
1163.0	
1164.0	
1165.0	
1166.0	
1167.0	
1168.0	
1169.0	
1170.0	
1171.0	
1172.0	
1173.0	
1174.0	
1175.0	
1176.0	
1177.0	
1178.0	
1179.0	
1180.0	
1181.0	
1182.0	
1183.0	
1184.0	
1185.0	
1186.0	
1187.0	
1188.0	
1189.0	
1190.0	
1191.0	
1192.0	
1193.0	
1194.0	
1195.0	
1196.0	
1197.0	
1198.0	
1199.0	
1200.0	
