Wavelength (nm)	165, OBC 2017_7255, 3
400.00	
401.00	
402.00	
403.00	
404.00	
405.00	
406.00	
407.00	
408.00	
409.00	
410.00	
411.00	
412.00	
413.00	
414.00	
415.00	
416.00	
417.00	
418.00	
419.00	
420.00	
421.00	
422.00	
423.00	
424.00	
425.00	
426.00	
427.00	
428.00	
429.00	
430.00	
431.00	
432.00	
433.00	
434.00	
435.00	
436.00	
437.00	
438.00	
439.00	
440.00	
441.00	
442.00	
443.00	
444.00	
445.00	
446.00	
447.00	
448.00	
449.00	
450.00	
451.00	
452.00	
453.00	
454.00	
455.00	
456.00	
457.00	
458.00	
459.00	
460.00	
461.00	
462.00	
463.00	
464.00	
465.00	
466.00	
467.00	
468.00	
469.00	
470.00	
471.00	
472.00	
473.00	
474.00	
475.00	
476.00	
477.00	
478.00	
479.00	
480.00	
481.00	
482.00	
483.00	
484.00	
485.00	
486.00	
487.00	
488.00	
489.00	
490.00	
491.00	
492.00	
493.00	
494.00	
495.00	
496.00	
497.00	
498.00	
499.00	
500.00	
501.00	
502.00	
503.00	
504.00	
505.00	
506.00	
507.00	
508.00	
509.00	
510.00	
511.00	
512.00	
513.00	
514.00	
515.00	
516.00	
517.00	
518.00	
519.00	
520.00	
521.00	
522.00	
523.00	
524.00	
525.00	
526.00	
527.00	
528.00	
529.00	
530.00	
531.00	
532.00	
533.00	
534.00	
535.00	
536.00	
537.00	
538.00	
539.00	
540.00	0.027586
541.00	0.031626
542.00	0.035665
543.00	0.041710
544.00	0.048165
545.00	0.056746
546.00	0.066072
547.00	0.078927
548.00	0.093309
549.00	0.10880
550.00	0.13085
551.00	0.15312
552.00	0.17553
553.00	0.20663
554.00	0.24104
555.00	0.27878
556.00	0.32080
557.00	0.36319
558.00	0.41290
559.00	0.46578
560.00	0.52586
561.00	0.58593
562.00	0.64600
563.00	0.70607
564.00	0.76199
565.00	0.81724
566.00	0.87308
567.00	0.91669
568.00	0.95150
569.00	0.98133
570.00	0.99636
571.00	1.0000
572.00	0.99609
573.00	0.97833
574.00	0.95385
575.00	0.92755
576.00	0.89939
577.00	0.85932
578.00	0.82238
579.00	0.78737
580.00	0.74784
581.00	0.70820
582.00	0.67499
583.00	0.64167
584.00	0.60588
585.00	0.57256
586.00	0.54361
587.00	0.51559
588.00	0.48878
589.00	0.46472
590.00	0.44245
591.00	0.42148
592.00	0.40149
593.00	0.38230
594.00	0.36347
595.00	0.34931
596.00	0.33514
597.00	0.32133
598.00	0.30865
599.00	0.29596
600.00	0.28329
601.00	0.27066
602.00	0.25804
603.00	0.24692
604.00	0.23630
605.00	0.22651
606.00	0.21774
607.00	0.20897
608.00	0.20033
609.00	0.19172
610.00	0.18346
611.00	0.17571
612.00	0.16797
613.00	0.16096
614.00	0.15432
615.00	0.14769
616.00	0.14157
617.00	0.13557
618.00	0.12956
619.00	0.12427
620.00	0.11906
621.00	0.11384
622.00	0.10887
623.00	0.10410
624.00	0.099337
625.00	0.094571
626.00	0.090305
627.00	0.086215
628.00	0.082124
629.00	0.078034
630.00	0.074129
631.00	0.070283
632.00	0.066437
633.00	0.062591
634.00	0.059427
635.00	0.056568
636.00	0.053709
637.00	0.050850
638.00	0.048025
639.00	0.045536
640.00	0.043047
641.00	0.040558
642.00	0.038069
643.00	0.035784
644.00	0.033954
645.00	0.032123
646.00	0.030292
647.00	0.028461
648.00	0.026727
649.00	0.025431
650.00	0.024134
651.00	0.022838
652.00	0.021542
653.00	0.020246
654.00	0.018950
655.00	0.018066
656.00	0.017229
657.00	0.016392
658.00	0.015555
659.00	0.014717
660.00	0.013880
661.00	0.013061
662.00	0.012332
663.00	0.011602
664.00	0.010873
665.00	0.010144
666.00	0.0094143
667.00	0.0087146
668.00	0.0081711
669.00	0.0076276
670.00	0.0070840
671.00	0.0065405
672.00	0.0059969
673.00	0.0055016
674.00	0.0050785
675.00	0.0046554
676.00	0.0042323
677.00	0.0038093
678.00	0.0033862
679.00	0.0031155
680.00	0.0030099
681.00	0.0029043
682.00	0.0027987
683.00	0.0026931
684.00	0.0025875
685.00	0.0024953
686.00	0.0024140
687.00	0.0023327
688.00	0.0022513
689.00	0.0021700
690.00	0.0020887
691.00	0.0020074
692.00	0.0019261
693.00	0.0019139
694.00	0.0019139
695.00	0.0019139
696.00	0.0019139
697.00	0.0019139
698.00	0.0019139
699.00	0.0019139
700.00	0.0019139
701.00	
702.00	
703.00	
704.00	
705.00	
706.00	
707.00	
708.00	
709.00	
710.00	
711.00	
712.00	
713.00	
714.00	
715.00	
716.00	
717.00	
718.00	
719.00	
720.00	
721.00	
722.00	
723.00	
724.00	
725.00	
726.00	
727.00	
728.00	
729.00	
730.00	
731.00	
732.00	
733.00	
734.00	
735.00	
736.00	
737.00	
738.00	
739.00	
740.00	
741.00	
742.00	
743.00	
744.00	
745.00	
746.00	
747.00	
748.00	
749.00	
750.00	
751.00	
752.00	
753.00	
754.00	
755.00	
756.00	
757.00	
758.00	
759.00	
760.00	
761.00	
762.00	
763.00	
764.00	
765.00	
766.00	
767.00	
768.00	
769.00	
770.00	
771.00	
772.00	
773.00	
774.00	
775.00	
776.00	
777.00	
778.00	
779.00	
780.00	
781.00	
782.00	
783.00	
784.00	
785.00	
786.00	
787.00	
788.00	
789.00	
790.00	
791.00	
792.00	
793.00	
794.00	
795.00	
796.00	
797.00	
798.00	
799.00	
800.00	
801.00	
802.00	
803.00	
804.00	
805.00	
806.00	
807.00	
808.00	
809.00	
810.00	
811.00	
812.00	
813.00	
814.00	
815.00	
816.00	
817.00	
818.00	
819.00	
820.00	
821.00	
822.00	
823.00	
824.00	
825.00	
826.00	
827.00	
828.00	
829.00	
830.00	
831.00	
832.00	
833.00	
834.00	
835.00	
836.00	
837.00	
838.00	
839.00	
840.00	
841.00	
842.00	
843.00	
844.00	
845.00	
846.00	
847.00	
848.00	
849.00	
850.00	
