Wavelength (nm)	13, T Asym 2004_3301, 1
400.00	
401.00	
402.00	
403.00	
404.00	
405.00	
406.00	
407.00	
408.00	
409.00	
410.00	
411.00	
412.00	
413.00	
414.00	
415.00	
416.00	
417.00	
418.00	
419.00	
420.00	
421.00	
422.00	
423.00	
424.00	
425.00	0.0014677
426.00	0.0014677
427.00	0.0014677
428.00	0.0014677
429.00	0.0014677
430.00	0.0014677
431.00	0.0014677
432.00	0.0014677
433.00	0.0014677
434.00	0.0014677
435.00	0.0014677
436.00	0.0014794
437.00	0.0016739
438.00	0.0018684
439.00	0.0020629
440.00	0.0022575
441.00	0.0024520
442.00	0.0027148
443.00	0.0030802
444.00	0.0034455
445.00	0.0038108
446.00	0.0041762
447.00	0.0050013
448.00	0.0058891
449.00	0.0067770
450.00	0.0076648
451.00	0.0088989
452.00	0.010428
453.00	0.011957
454.00	0.013486
455.00	0.015820
456.00	0.018739
457.00	0.021657
458.00	0.024575
459.00	0.028161
460.00	0.032634
461.00	0.037106
462.00	0.042188
463.00	0.049312
464.00	0.056435
465.00	0.063559
466.00	0.075193
467.00	0.087751
468.00	0.10095
469.00	0.11671
470.00	0.13246
471.00	0.15140
472.00	0.17575
473.00	0.19982
474.00	0.22151
475.00	0.24320
476.00	0.26553
477.00	0.29428
478.00	0.32303
479.00	0.35178
480.00	0.38337
481.00	0.41768
482.00	0.45200
483.00	0.48631
484.00	0.51456
485.00	0.54068
486.00	0.56680
487.00	0.59293
488.00	0.61905
489.00	0.65415
490.00	0.69109
491.00	0.72803
492.00	0.75974
493.00	0.79029
494.00	0.81781
495.00	0.84015
496.00	0.86249
497.00	0.88483
498.00	0.90147
499.00	0.91793
500.00	0.93439
501.00	0.94691
502.00	0.95927
503.00	0.96873
504.00	0.97542
505.00	0.98211
506.00	0.98811
507.00	0.99249
508.00	0.99676
509.00	0.99838
510.00	1.0000
511.00	0.99867
512.00	0.99735
513.00	0.99397
514.00	0.98861
515.00	0.98276
516.00	0.97545
517.00	0.96814
518.00	0.95982
519.00	0.95148
520.00	0.94314
521.00	0.93477
522.00	0.92527
523.00	0.91578
524.00	0.90628
525.00	0.89679
526.00	0.88729
527.00	0.87780
528.00	0.86655
529.00	0.85530
530.00	0.84405
531.00	0.83280
532.00	0.82155
533.00	0.81030
534.00	0.79753
535.00	0.78370
536.00	0.76986
537.00	0.75603
538.00	0.74220
539.00	0.72837
540.00	0.71443
541.00	0.70047
542.00	0.68650
543.00	0.67253
544.00	0.65857
545.00	0.64460
546.00	0.62976
547.00	0.61456
548.00	0.59936
549.00	0.58416
550.00	0.56897
551.00	0.55381
552.00	0.53939
553.00	0.52496
554.00	0.51053
555.00	0.49610
556.00	0.48168
557.00	0.46725
558.00	0.45414
559.00	0.44175
560.00	0.42936
561.00	0.41696
562.00	0.40457
563.00	0.39217
564.00	0.38088
565.00	0.37030
566.00	0.35971
567.00	0.34912
568.00	0.33854
569.00	0.32797
570.00	0.31747
571.00	0.30697
572.00	0.29648
573.00	0.28598
574.00	0.27686
575.00	0.26956
576.00	0.26225
577.00	0.25495
578.00	0.24765
579.00	0.24034
580.00	0.23278
581.00	0.22483
582.00	0.21688
583.00	0.20893
584.00	0.20099
585.00	0.19304
586.00	0.18785
587.00	0.18287
588.00	0.17788
589.00	0.17290
590.00	0.16792
591.00	0.16294
592.00	0.15814
593.00	0.15350
594.00	0.14887
595.00	0.14423
596.00	0.13959
597.00	0.13496
598.00	0.13036
599.00	0.12613
600.00	0.12189
601.00	0.11766
602.00	0.11342
603.00	0.10919
604.00	0.10495
605.00	0.10072
606.00	0.096935
607.00	0.093490
608.00	0.090045
609.00	0.086600
610.00	0.083155
611.00	0.079710
612.00	0.076265
613.00	0.072985
614.00	0.070289
615.00	0.067592
616.00	0.064896
617.00	0.062200
618.00	0.059504
619.00	0.056808
620.00	0.054112
621.00	0.052145
622.00	0.050288
623.00	0.048431
624.00	0.046574
625.00	0.044717
626.00	0.042860
627.00	0.041003
628.00	0.039147
629.00	0.037498
630.00	0.036007
631.00	0.034516
632.00	0.033025
633.00	0.031534
634.00	0.030043
635.00	0.028552
636.00	0.027060
637.00	0.025569
638.00	0.024572
639.00	0.023776
640.00	0.022979
641.00	0.022183
642.00	0.021387
643.00	0.020591
644.00	0.019795
645.00	0.018999
646.00	0.018203
647.00	0.017406
648.00	0.016712
649.00	0.016216
650.00	0.015720
651.00	0.015224
652.00	0.014728
653.00	0.014232
654.00	0.013736
655.00	0.013240
656.00	0.012744
657.00	0.012248
658.00	0.011790
659.00	0.011400
660.00	0.011011
661.00	0.010622
662.00	0.010232
663.00	0.0098431
664.00	0.0094538
665.00	0.0090645
666.00	0.0086752
667.00	0.0082859
668.00	0.0078965
669.00	0.0075033
670.00	0.0070167
671.00	0.0065300
672.00	0.0060434
673.00	0.0055567
674.00	0.0050701
675.00	0.0045834
676.00	0.0040968
677.00	0.0036101
678.00	0.0031235
679.00	0.0026368
680.00	0.0025268
681.00	0.0024782
682.00	0.0024295
683.00	0.0023808
684.00	0.0023321
685.00	0.0022835
686.00	0.0022348
687.00	0.0021861
688.00	0.0021375
689.00	0.0020888
690.00	0.0020401
691.00	0.0020182
692.00	0.0020182
693.00	0.0020182
694.00	0.0020182
695.00	0.0020182
696.00	0.0020182
697.00	0.0020182
698.00	0.0020182
699.00	0.0020182
700.00	0.0020182
701.00	
702.00	
703.00	
704.00	
705.00	
706.00	
707.00	
708.00	
709.00	
710.00	
711.00	
712.00	
713.00	
714.00	
715.00	
716.00	
717.00	
718.00	
719.00	
720.00	
721.00	
722.00	
723.00	
724.00	
725.00	
726.00	
727.00	
728.00	
729.00	
730.00	
731.00	
732.00	
733.00	
734.00	
735.00	
736.00	
737.00	
738.00	
739.00	
740.00	
741.00	
742.00	
743.00	
744.00	
745.00	
746.00	
747.00	
748.00	
749.00	
750.00	
751.00	
752.00	
753.00	
754.00	
755.00	
756.00	
757.00	
758.00	
759.00	
760.00	
761.00	
762.00	
763.00	
764.00	
765.00	
766.00	
767.00	
768.00	
769.00	
770.00	
771.00	
772.00	
773.00	
774.00	
775.00	
776.00	
777.00	
778.00	
779.00	
780.00	
781.00	
782.00	
783.00	
784.00	
785.00	
786.00	
787.00	
788.00	
789.00	
790.00	
791.00	
792.00	
793.00	
794.00	
795.00	
796.00	
797.00	
798.00	
799.00	
800.00	
801.00	
802.00	
803.00	
804.00	
805.00	
806.00	
807.00	
808.00	
809.00	
810.00	
811.00	
812.00	
813.00	
814.00	
815.00	
816.00	
817.00	
818.00	
819.00	
820.00	
821.00	
822.00	
823.00	
824.00	
825.00	
826.00	
827.00	
828.00	
829.00	
830.00	
831.00	
832.00	
833.00	
834.00	
835.00	
836.00	
837.00	
838.00	
839.00	
840.00	
841.00	
842.00	
843.00	
844.00	
845.00	
846.00	
847.00	
848.00	
849.00	
850.00	
