Wavelength (nm)	"149, JCS Dalton 1973_1734 , Zn"
200.00	
201.00	
202.00	
203.00	
204.00	
205.00	
206.00	
207.00	
208.00	
209.00	
210.00	
211.00	
212.00	
213.00	
214.00	
215.00	
216.00	
217.00	
218.00	
219.00	
220.00	
221.00	
222.00	
223.00	
224.00	
225.00	
226.00	
227.00	
228.00	
229.00	
230.00	
231.00	
232.00	
233.00	
234.00	
235.00	
236.00	
237.00	
238.00	
239.00	
240.00	
241.00	
242.00	
243.00	
244.00	
245.00	
246.00	
247.00	
248.00	
249.00	
250.00	0.16985
251.00	0.16915
252.00	0.16845
253.00	0.16776
254.00	0.16708
255.00	0.16708
256.00	0.16708
257.00	0.16810
258.00	0.17004
259.00	0.17230
260.00	0.17641
261.00	0.18087
262.00	0.18579
263.00	0.19187
264.00	0.20454
265.00	0.21550
266.00	0.22626
267.00	0.23702
268.00	0.24778
269.00	0.25963
270.00	0.27187
271.00	0.28412
272.00	0.29802
273.00	0.31246
274.00	0.32691
275.00	0.33855
276.00	0.34984
277.00	0.36113
278.00	0.36764
279.00	0.37281
280.00	0.37797
281.00	0.38138
282.00	0.38360
283.00	0.38583
284.00	0.38502
285.00	0.37833
286.00	0.37164
287.00	0.36495
288.00	0.35745
289.00	0.34976
290.00	0.34207
291.00	0.33437
292.00	0.32152
293.00	0.30373
294.00	0.28593
295.00	0.27103
296.00	0.25762
297.00	0.24422
298.00	0.23057
299.00	0.21638
300.00	0.20218
301.00	0.18835
302.00	0.17530
303.00	0.16225
304.00	0.14920
305.00	0.13539
306.00	0.12099
307.00	0.10660
308.00	0.095056
309.00	0.086856
310.00	0.078655
311.00	0.070455
312.00	0.064737
313.00	0.059719
314.00	0.054701
315.00	0.050306
316.00	0.047594
317.00	0.044881
318.00	0.042800
319.00	0.040964
320.00	0.039321
321.00	0.039095
322.00	0.038869
323.00	0.038642
324.00	0.038416
325.00	0.038194
326.00	0.038025
327.00	0.037855
328.00	0.037685
329.00	0.037516
330.00	0.037346
331.00	0.037177
332.00	0.037085
333.00	0.037085
334.00	0.037085
335.00	0.037085
336.00	0.037085
337.00	0.037085
338.00	0.037151
339.00	0.037302
340.00	0.037453
341.00	0.037603
342.00	0.037754
343.00	0.037905
344.00	0.038055
345.00	0.038206
346.00	0.038664
347.00	0.039121
348.00	0.039579
349.00	0.040037
350.00	0.040495
351.00	0.041012
352.00	0.042007
353.00	0.043003
354.00	0.043999
355.00	0.044995
356.00	0.045991
357.00	0.046986
358.00	0.047982
359.00	0.048978
360.00	0.049701
361.00	0.050324
362.00	0.050947
363.00	0.051569
364.00	0.052134
365.00	0.052610
366.00	0.053085
367.00	0.053561
368.00	0.054036
369.00	0.054512
370.00	0.054987
371.00	0.055313
372.00	0.055488
373.00	0.055663
374.00	0.055838
375.00	0.056013
376.00	0.056188
377.00	0.056363
378.00	0.056538
379.00	0.056598
380.00	0.056295
381.00	0.055992
382.00	0.055689
383.00	0.055386
384.00	0.055082
385.00	0.054779
386.00	0.054288
387.00	0.053776
388.00	0.053264
389.00	0.052752
390.00	0.052240
391.00	0.051728
392.00	0.051216
393.00	0.050704
394.00	0.049930
395.00	0.049078
396.00	0.048226
397.00	0.047374
398.00	0.046522
399.00	0.045670
400.00	0.044818
401.00	0.043967
402.00	0.043006
403.00	0.041999
404.00	0.040992
405.00	0.039985
406.00	0.038978
407.00	0.037971
408.00	0.036538
409.00	0.035036
410.00	0.033534
411.00	0.032032
412.00	0.030530
413.00	0.028779
414.00	0.026926
415.00	0.025074
416.00	0.023370
417.00	0.022259
418.00	0.021147
419.00	0.020036
420.00	0.018925
421.00	0.018042
422.00	0.017244
423.00	0.016446
424.00	0.015648
425.00	0.015171
426.00	0.014882
427.00	0.014593
428.00	0.014304
429.00	0.014015
430.00	0.013726
431.00	0.013477
432.00	0.013691
433.00	0.013904
434.00	0.014118
435.00	0.014331
436.00	0.014545
437.00	0.014759
438.00	0.014972
439.00	0.015529
440.00	0.016722
441.00	0.017915
442.00	0.019109
443.00	0.020302
444.00	0.022046
445.00	0.024687
446.00	0.027328
447.00	0.029969
448.00	0.032610
449.00	0.036301
450.00	0.040254
451.00	0.044207
452.00	0.048160
453.00	0.052113
454.00	0.056066
455.00	0.060020
456.00	0.063973
457.00	0.067926
458.00	0.071879
459.00	0.075832
460.00	0.082296
461.00	0.089553
462.00	0.096809
463.00	0.10407
464.00	0.11132
465.00	0.11858
466.00	0.12584
467.00	0.13309
468.00	0.14035
469.00	0.14761
470.00	0.15648
471.00	0.16950
472.00	0.18252
473.00	0.19555
474.00	0.20857
475.00	0.22159
476.00	0.23461
477.00	0.24764
478.00	0.26066
479.00	0.27446
480.00	0.28826
481.00	0.30206
482.00	0.31586
483.00	0.32967
484.00	0.34347
485.00	0.35727
486.00	0.37107
487.00	0.38487
488.00	0.40398
489.00	0.42310
490.00	0.44221
491.00	0.46132
492.00	0.48043
493.00	0.49955
494.00	0.51866
495.00	0.53777
496.00	0.55688
497.00	0.57600
498.00	0.59511
499.00	0.61468
500.00	0.63425
501.00	0.65381
502.00	0.67338
503.00	0.69295
504.00	0.71252
505.00	0.73209
506.00	0.75166
507.00	0.77122
508.00	0.79079
509.00	0.81225
510.00	0.83497
511.00	0.85769
512.00	0.88041
513.00	0.90313
514.00	0.92465
515.00	0.94138
516.00	0.95812
517.00	0.97485
518.00	0.98453
519.00	0.99420
520.00	0.99710
521.00	1.0000
522.00	0.99512
523.00	0.99024
524.00	0.95354
525.00	0.90994
526.00	0.83874
527.00	0.76755
528.00	0.69635
529.00	0.62515
530.00	0.57730
531.00	0.52945
532.00	0.48160
533.00	0.43375
534.00	0.38590
535.00	0.34949
536.00	0.31309
537.00	0.27668
538.00	0.24820
539.00	0.22763
540.00	0.20707
541.00	0.18650
542.00	0.16594
543.00	0.15424
544.00	0.14253
545.00	0.13082
546.00	0.11912
547.00	0.10741
548.00	0.095710
549.00	0.086512
550.00	0.077314
551.00	0.068116
552.00	0.061375
553.00	0.054849
554.00	0.048322
555.00	0.041795
556.00	0.036507
557.00	0.032457
558.00	0.028407
559.00	0.024357
560.00	0.020999
561.00	0.019719
562.00	0.018439
563.00	0.017159
564.00	0.015879
565.00	0.014797
566.00	0.014011
567.00	0.013226
568.00	0.012440
569.00	0.011654
570.00	0.010869
571.00	0.010083
572.00	0.0096825
573.00	0.0093721
574.00	0.0090618
575.00	0.0087515
576.00	0.0084412
577.00	0.0081309
578.00	0.0078206
579.00	0.0075103
580.00	0.0072000
581.00	0.0069849
582.00	0.0067697
583.00	0.0065546
584.00	0.0063394
585.00	0.0061243
586.00	0.0058372
587.00	0.0053651
588.00	0.0048931
589.00	0.0044210
590.00	0.0039489
591.00	0.0037489
592.00	0.0035489
593.00	0.0033489
594.00	0.0031489
595.00	0.0029489
596.00	0.0027291
597.00	0.0025093
598.00	0.0022896
599.00	0.0020698
600.00	0.0018500
601.00	0.0018500
602.00	0.0018500
603.00	0.0018500
604.00	0.0018500
605.00	0.0018500
606.00	0.0018500
607.00	0.0018500
608.00	0.0018500
609.00	0.0018500
610.00	0.0018500
611.00	0.0018500
612.00	0.0018500
613.00	0.0018500
614.00	0.0018500
615.00	0.0018500
616.00	0.0018500
617.00	0.0018500
618.00	0.0018500
619.00	0.0018500
620.00	0.0018500
621.00	0.0018500
622.00	0.0018500
623.00	0.0018500
624.00	0.0018500
625.00	0.0018500
626.00	0.0018500
627.00	0.0018500
628.00	0.0018500
629.00	0.0018500
630.00	0.0018500
631.00	0.0018500
632.00	0.0018500
633.00	0.0018500
634.00	0.0018500
635.00	0.0018500
636.00	0.0018500
637.00	0.0018500
638.00	0.0018500
639.00	0.0018500
640.00	0.0018500
641.00	0.0018500
642.00	0.0018500
643.00	0.0018500
644.00	0.0018500
645.00	0.0018500
646.00	0.0018500
647.00	0.0018500
648.00	0.0018500
649.00	0.0018500
650.00	0.0018500
651.00	
652.00	
653.00	
654.00	
655.00	
656.00	
657.00	
658.00	
659.00	
660.00	
661.00	
662.00	
663.00	
664.00	
665.00	
666.00	
667.00	
668.00	
669.00	
670.00	
671.00	
672.00	
673.00	
674.00	
675.00	
676.00	
677.00	
678.00	
679.00	
680.00	
681.00	
682.00	
683.00	
684.00	
685.00	
686.00	
687.00	
688.00	
689.00	
690.00	
691.00	
692.00	
693.00	
694.00	
695.00	
696.00	
697.00	
698.00	
699.00	
700.00	
701.00	
702.00	
703.00	
704.00	
705.00	
706.00	
707.00	
708.00	
709.00	
710.00	
711.00	
712.00	
713.00	
714.00	
715.00	
716.00	
717.00	
718.00	
719.00	
720.00	
721.00	
722.00	
723.00	
724.00	
725.00	
726.00	
727.00	
728.00	
729.00	
730.00	
731.00	
732.00	
733.00	
734.00	
735.00	
736.00	
737.00	
738.00	
739.00	
740.00	
741.00	
742.00	
743.00	
744.00	
745.00	
746.00	
747.00	
748.00	
749.00	
750.00	
751.00	
752.00	
753.00	
754.00	
755.00	
756.00	
757.00	
758.00	
759.00	
760.00	
761.00	
762.00	
763.00	
764.00	
765.00	
766.00	
767.00	
768.00	
769.00	
770.00	
771.00	
772.00	
773.00	
774.00	
775.00	
776.00	
777.00	
778.00	
779.00	
780.00	
781.00	
782.00	
783.00	
784.00	
785.00	
786.00	
787.00	
788.00	
789.00	
790.00	
791.00	
792.00	
793.00	
794.00	
795.00	
796.00	
797.00	
798.00	
799.00	
800.00	
801.00	
802.00	
803.00	
804.00	
805.00	
806.00	
807.00	
808.00	
809.00	
810.00	
811.00	
812.00	
813.00	
814.00	
815.00	
816.00	
817.00	
818.00	
819.00	
820.00	
821.00	
822.00	
823.00	
824.00	
825.00	
826.00	
827.00	
828.00	
829.00	
830.00	
831.00	
832.00	
833.00	
834.00	
835.00	
836.00	
837.00	
838.00	
839.00	
840.00	
841.00	
842.00	
843.00	
844.00	
845.00	
846.00	
847.00	
848.00	
849.00	
850.00	
851.00	
852.00	
853.00	
854.00	
855.00	
856.00	
857.00	
858.00	
859.00	
860.00	
861.00	
862.00	
863.00	
864.00	
865.00	
866.00	
867.00	
868.00	
869.00	
870.00	
871.00	
872.00	
873.00	
874.00	
875.00	
876.00	
877.00	
878.00	
879.00	
880.00	
881.00	
882.00	
883.00	
884.00	
885.00	
886.00	
887.00	
888.00	
889.00	
890.00	
891.00	
892.00	
893.00	
894.00	
895.00	
896.00	
897.00	
898.00	
899.00	
900.00	
901.00	
902.00	
903.00	
904.00	
905.00	
906.00	
907.00	
908.00	
909.00	
910.00	
911.00	
912.00	
913.00	
914.00	
915.00	
916.00	
917.00	
918.00	
919.00	
920.00	
921.00	
922.00	
923.00	
924.00	
925.00	
926.00	
927.00	
928.00	
929.00	
930.00	
931.00	
932.00	
933.00	
934.00	
935.00	
936.00	
937.00	
938.00	
939.00	
940.00	
941.00	
942.00	
943.00	
944.00	
945.00	
946.00	
947.00	
948.00	
949.00	
950.00	
951.00	
952.00	
953.00	
954.00	
955.00	
956.00	
957.00	
958.00	
959.00	
960.00	
961.00	
962.00	
963.00	
964.00	
965.00	
966.00	
967.00	
968.00	
969.00	
970.00	
971.00	
972.00	
973.00	
974.00	
975.00	
976.00	
977.00	
978.00	
979.00	
980.00	
981.00	
982.00	
983.00	
984.00	
985.00	
986.00	
987.00	
988.00	
989.00	
990.00	
991.00	
992.00	
993.00	
994.00	
995.00	
996.00	
997.00	
998.00	
999.00	
1000.0	
1001.0	
1002.0	
1003.0	
1004.0	
1005.0	
1006.0	
1007.0	
1008.0	
1009.0	
1010.0	
1011.0	
1012.0	
1013.0	
1014.0	
1015.0	
1016.0	
1017.0	
1018.0	
1019.0	
1020.0	
1021.0	
1022.0	
1023.0	
1024.0	
1025.0	
1026.0	
1027.0	
1028.0	
1029.0	
1030.0	
1031.0	
1032.0	
1033.0	
1034.0	
1035.0	
1036.0	
1037.0	
1038.0	
1039.0	
1040.0	
1041.0	
1042.0	
1043.0	
1044.0	
1045.0	
1046.0	
1047.0	
1048.0	
1049.0	
1050.0	
1051.0	
1052.0	
1053.0	
1054.0	
1055.0	
1056.0	
1057.0	
1058.0	
1059.0	
1060.0	
1061.0	
1062.0	
1063.0	
1064.0	
1065.0	
1066.0	
1067.0	
1068.0	
1069.0	
1070.0	
1071.0	
1072.0	
1073.0	
1074.0	
1075.0	
1076.0	
1077.0	
1078.0	
1079.0	
1080.0	
1081.0	
1082.0	
1083.0	
1084.0	
1085.0	
1086.0	
1087.0	
1088.0	
1089.0	
1090.0	
1091.0	
1092.0	
1093.0	
1094.0	
1095.0	
1096.0	
1097.0	
1098.0	
1099.0	
1100.0	
1101.0	
1102.0	
1103.0	
1104.0	
1105.0	
1106.0	
1107.0	
1108.0	
1109.0	
1110.0	
1111.0	
1112.0	
1113.0	
1114.0	
1115.0	
1116.0	
1117.0	
1118.0	
1119.0	
1120.0	
1121.0	
1122.0	
1123.0	
1124.0	
1125.0	
1126.0	
1127.0	
1128.0	
1129.0	
1130.0	
1131.0	
1132.0	
1133.0	
1134.0	
1135.0	
1136.0	
1137.0	
1138.0	
1139.0	
1140.0	
1141.0	
1142.0	
1143.0	
1144.0	
1145.0	
1146.0	
1147.0	
1148.0	
1149.0	
1150.0	
1151.0	
1152.0	
1153.0	
1154.0	
1155.0	
1156.0	
1157.0	
1158.0	
1159.0	
1160.0	
1161.0	
1162.0	
1163.0	
1164.0	
1165.0	
1166.0	
1167.0	
1168.0	
1169.0	
1170.0	
1171.0	
1172.0	
1173.0	
1174.0	
1175.0	
1176.0	
1177.0	
1178.0	
1179.0	
1180.0	
1181.0	
1182.0	
1183.0	
1184.0	
1185.0	
1186.0	
1187.0	
1188.0	
1189.0	
1190.0	
1191.0	
1192.0	
1193.0	
1194.0	
1195.0	
1196.0	
1197.0	
1198.0	
1199.0	
1200.0	
