Wavelength (nm)	F07 abs e
230.00	10777
230.25	10670
230.50	10661
230.75	10454
231.00	10555
231.25	10465
231.50	10219
231.75	10313
232.00	10355
232.25	10287
232.50	10226
232.75	10299
233.00	10234
233.25	10114
233.50	10135
233.75	10138
234.00	10047
234.25	9961.4
234.50	10149
234.75	10128
235.00	10197
235.25	10043
235.50	10119
235.75	10142
236.00	10149
236.25	10201
236.50	10258
236.75	10252
237.00	10181
237.25	10251
237.50	10348
237.75	10343
238.00	10340
238.25	10275
238.50	10345
238.75	10333
239.00	10378
239.25	10474
239.50	10427
239.75	10538
240.00	10488
240.25	10526
240.50	10530
240.75	10520
241.00	10688
241.25	10510
241.50	10540
241.75	10595
242.00	10542
242.25	10589
242.50	10554
242.75	10567
243.00	10700
243.25	10602
243.50	10590
243.75	10622
244.00	10638
244.25	10595
244.50	10610
244.75	10649
245.00	10589
245.25	10618
245.50	10587
245.75	10414
246.00	10625
246.25	10552
246.50	10511
246.75	10445
247.00	10450
247.25	10678
247.50	10437
247.75	10538
248.00	10624
248.25	10584
248.50	10438
248.75	10536
249.00	10451
249.25	10416
249.50	10521
249.75	10405
250.00	10335
250.25	10458
250.50	10404
250.75	10287
251.00	10407
251.25	10316
251.50	10336
251.75	10279
252.00	10255
252.25	10310
252.50	10202
252.75	10242
253.00	10244
253.25	10225
253.50	10195
253.75	10153
254.00	10181
254.25	10072
254.50	10058
254.75	10189
255.00	10108
255.25	10089
255.50	10029
255.75	10202
256.00	10167
256.25	10187
256.50	10203
256.75	10116
257.00	10142
257.25	10185
257.50	10300
257.75	10203
258.00	10253
258.25	10198
258.50	10304
258.75	10297
259.00	10364
259.25	10382
259.50	10446
259.75	10448
260.00	10698
260.25	10644
260.50	10692
260.75	10684
261.00	10709
261.25	10891
261.50	10859
261.75	10806
262.00	10982
262.25	11039
262.50	11269
262.75	11101
263.00	11313
263.25	11295
263.50	11485
263.75	11480
264.00	11459
264.25	11567
264.50	11722
264.75	11634
265.00	11781
265.25	11829
265.50	11853
265.75	12020
266.00	12142
266.25	12069
266.50	12164
266.75	12163
267.00	12317
267.25	12303
267.50	12391
267.75	12445
268.00	12530
268.25	12572
268.50	12532
268.75	12784
269.00	12703
269.25	12788
269.50	12664
269.75	12850
270.00	12856
270.25	12845
270.50	12873
270.75	12939
271.00	12939
271.25	13005
271.50	13022
271.75	13068
272.00	12898
272.25	13094
272.50	13126
272.75	13164
273.00	12946
273.25	13141
273.50	13096
273.75	13102
274.00	13112
274.25	13008
274.50	13088
274.75	12997
275.00	12938
275.25	12888
275.50	12925
275.75	12754
276.00	12743
276.25	12696
276.50	12643
276.75	12595
277.00	12511
277.25	12479
277.50	12462
277.75	12344
278.00	12104
278.25	12136
278.50	12068
278.75	11916
279.00	11766
279.25	11761
279.50	11568
279.75	11475
280.00	11374
280.25	11349
280.50	11261
280.75	11094
281.00	10930
281.25	10804
281.50	10739
281.75	10521
282.00	10418
282.25	10297
282.50	10183
282.75	10177
283.00	9926.4
283.25	9815.7
283.50	9666.2
283.75	9531.0
284.00	9410.1
284.25	9238.3
284.50	9189.0
284.75	8896.5
285.00	8799.6
285.25	8697.6
285.50	8486.2
285.75	8445.1
286.00	8254.0
286.25	8179.8
286.50	8046.0
286.75	7817.0
287.00	7650.0
287.25	7593.1
287.50	7325.7
287.75	7219.9
288.00	7016.7
288.25	6854.1
288.50	6810.2
288.75	6645.2
289.00	6495.6
289.25	6349.0
289.50	6271.4
289.75	6097.7
290.00	5899.0
290.25	5717.2
290.50	5603.0
290.75	5522.8
291.00	5333.9
291.25	5226.0
291.50	5045.9
291.75	4999.4
292.00	4827.4
292.25	4720.2
292.50	4583.9
292.75	4410.2
293.00	4369.8
293.25	4277.7
293.50	4052.2
293.75	3844.7
294.00	3800.9
294.25	3724.9
294.50	3559.1
294.75	3543.9
295.00	3427.8
295.25	3364.7
295.50	3296.0
295.75	3191.9
296.00	3038.9
296.25	2992.1
296.50	2804.2
296.75	2737.1
297.00	2677.6
297.25	2574.5
297.50	2438.0
297.75	2372.7
298.00	2294.6
298.25	2243.9
298.50	2101.2
298.75	2017.9
299.00	1871.5
299.25	1794.7
299.50	1592.9
299.75	1618.2
300.00	1557.0
300.25	1569.1
300.50	1511.4
300.75	1334.0
301.00	1314.5
301.25	1177.0
301.50	1121.1
301.75	1157.3
302.00	1061.9
302.25	1002.2
302.50	890.40
302.75	916.40
303.00	799.19
303.25	770.56
303.50	800.06
303.75	700.40
304.00	676.07
304.25	623.05
304.50	633.87
304.75	522.10
305.00	461.60
305.25	434.51
305.50	489.29
305.75	398.12
306.00	417.54
306.25	408.36
306.50	387.68
306.75	361.06
307.00	308.02
307.25	329.15
307.50	313.62
307.75	247.49
308.00	343.50
308.25	288.92
308.50	273.68
308.75	234.90
309.00	172.24
309.25	182.27
309.50	256.88
309.75	281.67
310.00	117.49
310.25	111.42
310.50	157.33
310.75	144.08
311.00	160.91
311.25	173.53
311.50	122.13
311.75	155.09
312.00	161.28
312.25	113.62
312.50	174.32
312.75	136.51
313.00	101.21
313.25	100.52
313.50	128.37
313.75	133.27
314.00	84.732
314.25	112.64
314.50	125.97
314.75	115.34
315.00	61.952
315.25	45.656
315.50	86.626
315.75	140.50
316.00	152.43
316.25	48.121
316.50	95.769
316.75	149.10
317.00	71.107
317.25	111.32
317.50	95.478
317.75	80.336
318.00	69.480
318.25	39.379
318.50	128.58
318.75	86.723
319.00	97.955
319.25	68.898
319.50	65.437
319.75	85.934
320.00	95.551
320.25	68.327
320.50	160.00
320.75	98.987
321.00	100.86
321.25	89.771
321.50	110.17
321.75	70.452
322.00	60.580
322.25	153.80
322.50	138.78
322.75	26.580
323.00	136.73
323.25	68.545
323.50	78.332
323.75	50.744
324.00	62.293
324.25	78.345
324.50	25.548
324.75	51.194
325.00	83.529
325.25	68.400
325.50	44.114
325.75	81.040
326.00	77.300
326.25	74.070
326.50	60.046
326.75	58.139
327.00	102.44
327.25	21.978
327.50	97.093
327.75	34.983
328.00	24.528
328.25	65.910
328.50	65.522
328.75	113.08
329.00	48.061
329.25	44.734
329.50	29.786
329.75	33.186
330.00	32.263
330.25	43.531
330.50	13.964
330.75	115.60
331.00	34.024
331.25	63.494
331.50	4.4321
331.75	72.103
332.00	118.86
332.25	94.919
332.50	9.5077
332.75	13.952
333.00	60.191
333.25	57.496
333.50	32.215
333.75	48.911
334.00	101.08
334.25	38.492
334.50	116.92
334.75	65.352
335.00	54.630
335.25	169.38
335.50	66.093
335.75	61.575
336.00	19.477
336.25	124.49
336.50	24.892
336.75	109.10
337.00	101.42
337.25	82.121
337.50	105.56
337.75	104.57
338.00	98.400
338.25	96.425
338.50	70.452
338.75	99.643
339.00	22.148
339.25	14.011
339.50	17.291
339.75	26.981
340.00	119.79
340.25	100.18
340.50	104.29
340.75	55.638
341.00	16.769
341.25	45.571
341.50	92.916
341.75	92.928
342.00	81.720
342.25	39.670
342.50	27.491
342.75	37.181
343.00	112.82
343.25	19.040
343.50	33.684
343.75	87.755
344.00	20.230
344.25	79.158
344.50	81.890
344.75	22.513
345.00	2.1857
345.25	50.841
345.50	81.465
345.75	95.369
346.00	93.814
346.25	1.8093
346.50	63.664
346.75	46.798
347.00	109.03
347.25	60.349
347.50	38.966
347.75	71.812
348.00	30.357
348.25	29.567
348.50	107.62
348.75	72.188
349.00	71.168
349.25	126.15
349.50	41.819
349.75	36.586
350.00	71.192
