Wavelength (nm)	"152, CC 2007_2258, 11"
200.00	
201.00	
202.00	
203.00	
204.00	
205.00	
206.00	
207.00	
208.00	
209.00	
210.00	
211.00	
212.00	
213.00	
214.00	
215.00	
216.00	
217.00	
218.00	
219.00	
220.00	
221.00	
222.00	
223.00	
224.00	
225.00	
226.00	
227.00	
228.00	
229.00	
230.00	
231.00	
232.00	
233.00	
234.00	
235.00	
236.00	
237.00	
238.00	
239.00	
240.00	
241.00	
242.00	
243.00	
244.00	
245.00	
246.00	
247.00	
248.00	
249.00	
250.00	
251.00	
252.00	
253.00	
254.00	
255.00	
256.00	
257.00	
258.00	
259.00	
260.00	
261.00	
262.00	
263.00	
264.00	
265.00	
266.00	
267.00	
268.00	
269.00	
270.00	
271.00	
272.00	
273.00	
274.00	
275.00	
276.00	
277.00	
278.00	
279.00	
280.00	
281.00	
282.00	
283.00	
284.00	
285.00	
286.00	
287.00	
288.00	
289.00	
290.00	
291.00	
292.00	
293.00	
294.00	
295.00	
296.00	
297.00	
298.00	
299.00	
300.00	
301.00	
302.00	
303.00	
304.00	
305.00	
306.00	
307.00	
308.00	
309.00	
310.00	
311.00	
312.00	
313.00	
314.00	
315.00	
316.00	
317.00	
318.00	
319.00	
320.00	
321.00	
322.00	
323.00	
324.00	
325.00	
326.00	
327.00	
328.00	
329.00	
330.00	
331.00	
332.00	
333.00	
334.00	
335.00	
336.00	
337.00	
338.00	
339.00	
340.00	
341.00	
342.00	
343.00	
344.00	
345.00	
346.00	
347.00	
348.00	
349.00	
350.00	0.35499
351.00	0.35815
352.00	0.36167
353.00	0.36640
354.00	0.37113
355.00	0.37586
356.00	0.38059
357.00	0.38608
358.00	0.39189
359.00	0.39770
360.00	0.40336
361.00	0.40889
362.00	0.41442
363.00	0.41893
364.00	0.42274
365.00	0.42654
366.00	0.43035
367.00	0.43325
368.00	0.43404
369.00	0.43484
370.00	0.43563
371.00	0.43579
372.00	0.43518
373.00	0.43456
374.00	0.43395
375.00	0.43334
376.00	0.43348
377.00	0.43448
378.00	0.43548
379.00	0.43649
380.00	0.43749
381.00	0.43849
382.00	0.44039
383.00	0.44391
384.00	0.44742
385.00	0.45093
386.00	0.45510
387.00	0.46089
388.00	0.46668
389.00	0.47313
390.00	0.48442
391.00	0.49570
392.00	0.50683
393.00	0.51794
394.00	0.52904
395.00	0.53931
396.00	0.54951
397.00	0.55971
398.00	0.56858
399.00	0.57621
400.00	0.58384
401.00	0.58922
402.00	0.59298
403.00	0.59672
404.00	0.59958
405.00	0.60229
406.00	0.60500
407.00	0.60771
408.00	0.61284
409.00	0.62267
410.00	0.63251
411.00	0.64677
412.00	0.66183
413.00	0.67688
414.00	0.70111
415.00	0.72763
416.00	0.76291
417.00	0.80038
418.00	0.84473
419.00	0.89015
420.00	0.92800
421.00	0.96017
422.00	0.98510
423.00	0.99500
424.00	1.0000
425.00	0.99082
426.00	0.97052
427.00	0.93187
428.00	0.88271
429.00	0.83387
430.00	0.78932
431.00	0.74087
432.00	0.68836
433.00	0.63405
434.00	0.57755
435.00	0.52876
436.00	0.49107
437.00	0.45915
438.00	0.43664
439.00	0.41414
440.00	0.39249
441.00	0.37127
442.00	0.35428
443.00	0.34363
444.00	0.33298
445.00	0.32814
446.00	0.32388
447.00	0.31961
448.00	0.31856
449.00	0.31832
450.00	0.31807
451.00	0.31782
452.00	0.31704
453.00	0.31600
454.00	0.31496
455.00	0.31364
456.00	0.31222
457.00	0.31079
458.00	0.30937
459.00	0.30680
460.00	0.30270
461.00	0.29860
462.00	0.29306
463.00	0.28744
464.00	0.28191
465.00	0.27675
466.00	0.27158
467.00	0.26656
468.00	0.26364
469.00	0.26073
470.00	0.25781
471.00	0.25551
472.00	0.25551
473.00	0.25551
474.00	0.25551
475.00	0.25548
476.00	0.25529
477.00	0.25509
478.00	0.25490
479.00	0.25470
480.00	0.25450
481.00	0.25469
482.00	0.25490
483.00	0.25512
484.00	0.25533
485.00	0.25561
486.00	0.25614
487.00	0.25667
488.00	0.25719
489.00	0.25736
490.00	0.25677
491.00	0.25618
492.00	0.25559
493.00	0.25500
494.00	0.25426
495.00	0.25251
496.00	0.25075
497.00	0.24900
498.00	0.24731
499.00	0.24662
500.00	0.24592
501.00	0.24523
502.00	0.24454
503.00	0.24384
504.00	0.24324
505.00	0.24303
506.00	0.24283
507.00	0.24262
508.00	0.24242
509.00	0.24271
510.00	0.24511
511.00	0.24752
512.00	0.24993
513.00	0.25270
514.00	0.25557
515.00	0.25798
516.00	0.25937
517.00	0.26076
518.00	0.26103
519.00	0.25943
520.00	0.25782
521.00	0.25537
522.00	0.24958
523.00	0.24379
524.00	0.23799
525.00	0.23209
526.00	0.22619
527.00	0.21990
528.00	0.21034
529.00	0.20349
530.00	0.19663
531.00	0.18978
532.00	0.18293
533.00	0.17608
534.00	0.16878
535.00	0.16148
536.00	0.15418
537.00	0.14687
538.00	0.14035
539.00	0.13642
540.00	0.13249
541.00	0.12856
542.00	0.12463
543.00	0.12070
544.00	0.11677
545.00	0.11317
546.00	0.11074
547.00	0.10830
548.00	0.10587
549.00	0.10343
550.00	0.10100
551.00	0.098565
552.00	0.096130
553.00	0.093696
554.00	0.092253
555.00	0.091000
556.00	0.089747
557.00	0.088494
558.00	0.087241
559.00	0.085987
560.00	0.084734
561.00	0.083481
562.00	0.082773
563.00	0.082298
564.00	0.081824
565.00	0.081349
566.00	0.080875
567.00	0.080400
568.00	0.079926
569.00	0.079451
570.00	0.078982
571.00	0.078563
572.00	0.078143
573.00	0.077724
574.00	0.077305
575.00	0.076885
576.00	0.076466
577.00	0.076047
578.00	0.075627
579.00	0.075208
580.00	0.074773
581.00	0.074310
582.00	0.073847
583.00	0.073385
584.00	0.072922
585.00	0.072459
586.00	0.071997
587.00	0.071534
588.00	0.071071
589.00	0.070595
590.00	0.070108
591.00	0.069621
592.00	0.069135
593.00	0.068648
594.00	0.068161
595.00	0.067674
596.00	0.067187
597.00	0.066879
598.00	0.067442
599.00	0.068006
600.00	0.068569
601.00	0.069133
602.00	0.069696
603.00	0.070260
604.00	0.070824
605.00	0.071387
606.00	0.072010
607.00	0.073072
608.00	0.074133
609.00	0.075195
610.00	0.076256
611.00	0.077317
612.00	0.078379
613.00	0.079440
614.00	0.080480
615.00	0.081492
616.00	0.082504
617.00	0.083516
618.00	0.084527
619.00	0.085539
620.00	0.086551
621.00	0.087563
622.00	0.088575
623.00	0.089586
624.00	0.090598
625.00	0.091764
626.00	0.093230
627.00	0.094696
628.00	0.096161
629.00	0.097627
630.00	0.099092
631.00	0.10056
632.00	0.10202
633.00	0.10349
634.00	0.10484
635.00	0.10593
636.00	0.10701
637.00	0.10809
638.00	0.10917
639.00	0.11025
640.00	0.11134
641.00	0.11242
642.00	0.11350
643.00	0.11458
644.00	0.11567
645.00	0.11675
646.00	0.11832
647.00	0.11990
648.00	0.12149
649.00	0.12307
650.00	0.12465
651.00	0.12623
652.00	0.12781
653.00	0.12940
654.00	0.13083
655.00	0.13215
656.00	0.13348
657.00	0.13481
658.00	0.13613
659.00	0.13746
660.00	0.13878
661.00	0.14011
662.00	0.14248
663.00	0.14496
664.00	0.14743
665.00	0.14991
666.00	0.15238
667.00	0.15486
668.00	0.15733
669.00	0.16033
670.00	0.16339
671.00	0.16644
672.00	0.16950
673.00	0.17256
674.00	0.17562
675.00	0.17850
676.00	0.18124
677.00	0.18399
678.00	0.18674
679.00	0.18948
680.00	0.19271
681.00	0.19678
682.00	0.20085
683.00	0.20492
684.00	0.20899
685.00	0.21284
686.00	0.21653
687.00	0.22022
688.00	0.22392
689.00	0.22761
690.00	0.23111
691.00	0.23449
692.00	0.23787
693.00	0.24125
694.00	0.24467
695.00	0.24846
696.00	0.25226
697.00	0.25606
698.00	0.25985
699.00	0.26162
700.00	0.26288
701.00	0.26415
702.00	0.26541
703.00	0.26668
704.00	0.26768
705.00	0.26720
706.00	0.26673
707.00	0.26626
708.00	0.26578
709.00	0.26484
710.00	0.26382
711.00	0.26279
712.00	0.26177
713.00	0.26074
714.00	0.25963
715.00	0.25850
716.00	0.25738
717.00	0.25625
718.00	0.25513
719.00	0.25400
720.00	0.25311
721.00	0.25243
722.00	0.25176
723.00	0.25108
724.00	0.25041
725.00	0.25041
726.00	0.25041
727.00	0.25041
728.00	0.25041
729.00	0.25041
730.00	0.25041
731.00	0.25162
732.00	0.25342
733.00	0.25523
734.00	0.25704
735.00	0.25907
736.00	0.26237
737.00	0.26566
738.00	0.26897
739.00	0.27228
740.00	0.27560
741.00	0.27892
742.00	0.28224
743.00	0.28704
744.00	0.29363
745.00	0.30022
746.00	0.30769
747.00	0.31599
748.00	0.32429
749.00	0.33260
750.00	0.34100
751.00	0.34977
752.00	0.35855
753.00	0.36732
754.00	0.37642
755.00	0.38757
756.00	0.39872
757.00	0.40987
758.00	0.42103
759.00	0.43071
760.00	0.44010
761.00	0.44950
762.00	0.45890
763.00	0.46830
764.00	0.47671
765.00	0.48453
766.00	0.49235
767.00	0.49957
768.00	0.50487
769.00	0.51017
770.00	0.51547
771.00	0.51985
772.00	0.52280
773.00	0.52575
774.00	0.52870
775.00	0.52706
776.00	0.52543
777.00	0.52379
778.00	0.52093
779.00	0.51608
780.00	0.51122
781.00	0.50453
782.00	0.49551
783.00	0.48649
784.00	0.47747
785.00	0.46846
786.00	0.45753
787.00	0.44576
788.00	0.43398
789.00	0.42220
790.00	0.41042
791.00	0.39865
792.00	0.38546
793.00	0.37192
794.00	0.35838
795.00	0.34484
796.00	0.33130
797.00	0.31776
798.00	0.30423
799.00	0.29122
800.00	0.27924
801.00	0.26726
802.00	0.25528
803.00	0.24330
804.00	0.23132
805.00	0.21934
806.00	0.20736
807.00	0.19537
808.00	0.18620
809.00	0.17800
810.00	0.16981
811.00	0.16161
812.00	0.15342
813.00	0.14523
814.00	0.13703
815.00	0.12943
816.00	0.12342
817.00	0.11741
818.00	0.11140
819.00	0.10539
820.00	0.099375
821.00	0.093484
822.00	0.088224
823.00	0.082964
824.00	0.077704
825.00	0.072443
826.00	0.067183
827.00	0.063426
828.00	0.060224
829.00	0.057022
830.00	0.053821
831.00	0.050619
832.00	0.047417
833.00	0.044215
834.00	0.041636
835.00	0.039299
836.00	0.036961
837.00	0.034624
838.00	0.032287
839.00	0.029950
840.00	0.028396
841.00	0.027345
842.00	0.026293
843.00	0.025241
844.00	0.024190
845.00	0.023138
846.00	0.022086
847.00	0.021397
848.00	0.020788
849.00	0.020178
850.00	0.019569
851.00	0.018960
852.00	0.018350
853.00	0.017741
854.00	0.017131
855.00	0.016532
856.00	0.015944
857.00	0.015357
858.00	0.014769
859.00	0.014182
860.00	0.013450
861.00	0.012264
862.00	0.011078
863.00	0.0098921
864.00	0.0087060
865.00	0.0083086
866.00	0.0079616
867.00	0.0076146
868.00	0.0096148
869.00	0.011615
870.00	0.014295
871.00	0.017003
872.00	0.018932
873.00	0.020527
874.00	0.022121
875.00	0.021981
876.00	0.020673
877.00	0.017613
878.00	0.013095
879.00	0.0095244
880.00	0.0063787
881.00	0.0042380
882.00	0.0034851
883.00	0.0027322
884.00	0.0024139
885.00	0.0022730
886.00	0.0021321
887.00	0.0019912
888.00	0.0018503
889.00	0.0017094
890.00	0.0015685
891.00	0.0014938
892.00	0.0014938
893.00	0.0014938
894.00	0.0014938
895.00	0.0014938
896.00	0.0014938
897.00	0.0014938
898.00	0.0014938
899.00	0.0014938
900.00	0.0014938
901.00	
902.00	
903.00	
904.00	
905.00	
906.00	
907.00	
908.00	
909.00	
910.00	
911.00	
912.00	
913.00	
914.00	
915.00	
916.00	
917.00	
918.00	
919.00	
920.00	
921.00	
922.00	
923.00	
924.00	
925.00	
926.00	
927.00	
928.00	
929.00	
930.00	
931.00	
932.00	
933.00	
934.00	
935.00	
936.00	
937.00	
938.00	
939.00	
940.00	
941.00	
942.00	
943.00	
944.00	
945.00	
946.00	
947.00	
948.00	
949.00	
950.00	
951.00	
952.00	
953.00	
954.00	
955.00	
956.00	
957.00	
958.00	
959.00	
960.00	
961.00	
962.00	
963.00	
964.00	
965.00	
966.00	
967.00	
968.00	
969.00	
970.00	
971.00	
972.00	
973.00	
974.00	
975.00	
976.00	
977.00	
978.00	
979.00	
980.00	
981.00	
982.00	
983.00	
984.00	
985.00	
986.00	
987.00	
988.00	
989.00	
990.00	
991.00	
992.00	
993.00	
994.00	
995.00	
996.00	
997.00	
998.00	
999.00	
1000.0	
1001.0	
1002.0	
1003.0	
1004.0	
1005.0	
1006.0	
1007.0	
1008.0	
1009.0	
1010.0	
1011.0	
1012.0	
1013.0	
1014.0	
1015.0	
1016.0	
1017.0	
1018.0	
1019.0	
1020.0	
1021.0	
1022.0	
1023.0	
1024.0	
1025.0	
1026.0	
1027.0	
1028.0	
1029.0	
1030.0	
1031.0	
1032.0	
1033.0	
1034.0	
1035.0	
1036.0	
1037.0	
1038.0	
1039.0	
1040.0	
1041.0	
1042.0	
1043.0	
1044.0	
1045.0	
1046.0	
1047.0	
1048.0	
1049.0	
1050.0	
1051.0	
1052.0	
1053.0	
1054.0	
1055.0	
1056.0	
1057.0	
1058.0	
1059.0	
1060.0	
1061.0	
1062.0	
1063.0	
1064.0	
1065.0	
1066.0	
1067.0	
1068.0	
1069.0	
1070.0	
1071.0	
1072.0	
1073.0	
1074.0	
1075.0	
1076.0	
1077.0	
1078.0	
1079.0	
1080.0	
1081.0	
1082.0	
1083.0	
1084.0	
1085.0	
1086.0	
1087.0	
1088.0	
1089.0	
1090.0	
1091.0	
1092.0	
1093.0	
1094.0	
1095.0	
1096.0	
1097.0	
1098.0	
1099.0	
1100.0	
1101.0	
1102.0	
1103.0	
1104.0	
1105.0	
1106.0	
1107.0	
1108.0	
1109.0	
1110.0	
1111.0	
1112.0	
1113.0	
1114.0	
1115.0	
1116.0	
1117.0	
1118.0	
1119.0	
1120.0	
1121.0	
1122.0	
1123.0	
1124.0	
1125.0	
1126.0	
1127.0	
1128.0	
1129.0	
1130.0	
1131.0	
1132.0	
1133.0	
1134.0	
1135.0	
1136.0	
1137.0	
1138.0	
1139.0	
1140.0	
1141.0	
1142.0	
1143.0	
1144.0	
1145.0	
1146.0	
1147.0	
1148.0	
1149.0	
1150.0	
1151.0	
1152.0	
1153.0	
1154.0	
1155.0	
1156.0	
1157.0	
1158.0	
1159.0	
1160.0	
1161.0	
1162.0	
1163.0	
1164.0	
1165.0	
1166.0	
1167.0	
1168.0	
1169.0	
1170.0	
1171.0	
1172.0	
1173.0	
1174.0	
1175.0	
1176.0	
1177.0	
1178.0	
1179.0	
1180.0	
1181.0	
1182.0	
1183.0	
1184.0	
1185.0	
1186.0	
1187.0	
1188.0	
1189.0	
1190.0	
1191.0	
1192.0	
1193.0	
1194.0	
1195.0	
1196.0	
1197.0	
1198.0	
1199.0	
1200.0	
